 Al Density=2.6989 Thickness=0.1 microns
 Photon Energy (eV), Transmission
    150.00      0.66775E-01
    152.00      0.69430E-01
    154.00      0.72289E-01
    156.00      0.75191E-01
    158.00      0.78126E-01
    160.00      0.81090E-01
    162.00      0.84084E-01
    164.00      0.87104E-01
    166.00      0.90150E-01
    168.00      0.93219E-01
    170.00      0.96311E-01
    172.00      0.99424E-01
    174.00      0.10256    
    176.00      0.10570    
    178.00      0.10944    
    180.00      0.11396    
    182.00      0.12018    
    184.00      0.12650    
    186.00      0.13292    
    188.00      0.13942    
    190.00      0.14601    
    192.00      0.15267    
    194.00      0.15940    
    196.00      0.16619    
    198.00      0.17304    
    200.00      0.17993    
    202.00      0.18692    
    204.00      0.19399    
    206.00      0.20109    
    208.00      0.20821    
    210.00      0.21536    
    212.00      0.22252    
    214.00      0.22969    
    216.00      0.23686    
    218.00      0.24404    
    220.00      0.25121    
    222.00      0.25825    
    224.00      0.26511    
    226.00      0.27150    
    228.00      0.27757    
    230.00      0.28361    
    232.00      0.28963    
    234.00      0.29562    
    236.00      0.30158    
    238.00      0.30751    
    240.00      0.31341    
    242.00      0.31928    
    244.00      0.32510    
    246.00      0.33090    
    248.00      0.33665    
    250.00      0.34237    
    252.00      0.34805    
    254.00      0.35369    
    256.00      0.35928    
    258.00      0.36484    
    260.00      0.37035    
    262.00      0.37582    
    264.00      0.38126    
    266.00      0.38694    
    268.00      0.39258    
    270.00      0.39932    
    272.00      0.40613    
    274.00      0.41288    
    276.00      0.41957    
    278.00      0.42619    
    280.00      0.43275    
    282.00      0.43924    
    284.00      0.44567    
    286.00      0.45203    
    288.00      0.45832    
    290.00      0.46454    
    292.00      0.47070    
    294.00      0.47679    
    296.00      0.48281    
    298.00      0.48876    
    300.00      0.49464    
    302.00      0.50046    
    304.00      0.50621    
    306.00      0.51189    
    308.00      0.51750    
    310.00      0.52304    
    312.00      0.52852    
    314.00      0.53393    
    316.00      0.53928    
    318.00      0.54456    
    320.00      0.54977    
    322.00      0.55492    
    324.00      0.56000    
    326.00      0.56502    
    328.00      0.56998    
    330.00      0.57487    
    332.00      0.57970    
    334.00      0.58447    
    336.00      0.58917    
    338.00      0.59382    
    340.00      0.59840    
    342.00      0.60293    
    344.00      0.60739    
    346.00      0.61180    
    348.00      0.61615    
    350.00      0.62044    
    352.00      0.62468    
    354.00      0.62886    
    356.00      0.63299    
    358.00      0.63706    
    360.00      0.64078    
    362.00      0.64444    
    364.00      0.64806    
    366.00      0.65154    
    368.00      0.65498    
    370.00      0.65838    
    372.00      0.66173    
    374.00      0.66505    
    376.00      0.66832    
    378.00      0.67155    
    380.00      0.67474    
    382.00      0.67789    
    384.00      0.68101    
    386.00      0.68408    
    388.00      0.68711    
    390.00      0.69011    
    392.00      0.69307    
    394.00      0.69600    
    396.00      0.69889    
    398.00      0.70174    
    400.00      0.70455    
    402.00      0.70734    
    404.00      0.71009    
    406.00      0.71280    
    408.00      0.71548    
    410.00      0.71813    
    412.00      0.72075    
    414.00      0.72333    
    416.00      0.72589    
    418.00      0.72841    
    420.00      0.73090    
    422.00      0.73336    
    424.00      0.73579    
    426.00      0.73819    
    428.00      0.74057    
    430.00      0.74291    
    432.00      0.74523    
    434.00      0.74752    
    436.00      0.74992    
    438.00      0.75230    
    440.00      0.75464    
    442.00      0.75699    
    444.00      0.75933    
    446.00      0.76165    
    448.00      0.76394    
    450.00      0.76620    
    452.00      0.76843    
    454.00      0.77063    
    456.00      0.77281    
    458.00      0.77496    
    460.00      0.77708    
    462.00      0.77917    
    464.00      0.78124    
    466.00      0.78329    
    468.00      0.78531    
    470.00      0.78730    
    472.00      0.78927    
    474.00      0.79122    
    476.00      0.79314    
    478.00      0.79504    
    480.00      0.79692    
    482.00      0.79878    
    484.00      0.80061    
    486.00      0.80242    
    488.00      0.80421    
    490.00      0.80598    
    492.00      0.80773    
    494.00      0.80946    
    496.00      0.81119    
    498.00      0.81289    
    500.00      0.81457    
    502.00      0.81624    
    504.00      0.81791    
    506.00      0.81956    
    508.00      0.82119    
    510.00      0.82280    
    512.00      0.82440    
    514.00      0.82598    
    516.00      0.82754    
    518.00      0.82909    
    520.00      0.83061    
    522.00      0.83211    
    524.00      0.83360    
    526.00      0.83507    
    528.00      0.83651    
    530.00      0.83794    
    532.00      0.83936    
    534.00      0.84075    
    536.00      0.84213    
    538.00      0.84349    
    540.00      0.84484    
    542.00      0.84617    
    544.00      0.84748    
    546.00      0.84878    
    548.00      0.85007    
    550.00      0.85134    
    552.00      0.85260    
    554.00      0.85386    
    556.00      0.85511    
    558.00      0.85635    
    560.00      0.85758    
    562.00      0.85879    
    564.00      0.86000    
    566.00      0.86120    
    568.00      0.86238    
    570.00      0.86355    
    572.00      0.86472    
    574.00      0.86588    
    576.00      0.86702    
    578.00      0.86816    
    580.00      0.86927    
    582.00      0.87038    
    584.00      0.87148    
    586.00      0.87256    
    588.00      0.87363    
    590.00      0.87470    
    592.00      0.87575    
    594.00      0.87678    
    596.00      0.87781    
    598.00      0.87883    
    600.00      0.87983    
    602.00      0.88082    
    604.00      0.88181    
    606.00      0.88278    
    608.00      0.88374    
    610.00      0.88469    
    612.00      0.88563    
    614.00      0.88656    
    616.00      0.88748    
    618.00      0.88839    
    620.00      0.88929    
    622.00      0.89018    
    624.00      0.89106    
    626.00      0.89194    
    628.00      0.89280    
    630.00      0.89367    
    632.00      0.89453    
    634.00      0.89538    
    636.00      0.89623    
    638.00      0.89706    
    640.00      0.89791    
    642.00      0.89875    
    644.00      0.89958    
    646.00      0.90040    
    648.00      0.90121    
    650.00      0.90203    
    652.00      0.90284    
    654.00      0.90364    
    656.00      0.90443    
    658.00      0.90521    
    660.00      0.90599    
    662.00      0.90675    
    664.00      0.90751    
    666.00      0.90826    
    668.00      0.90900    
    670.00      0.90972    
    672.00      0.91040    
    674.00      0.91107    
    676.00      0.91174    
    678.00      0.91240    
    680.00      0.91306    
    682.00      0.91367    
    684.00      0.91428    
    686.00      0.91488    
    688.00      0.91548    
    690.00      0.91607    
    692.00      0.91665    
    694.00      0.91722    
    696.00      0.91779    
    698.00      0.91835    
    700.00      0.91891    
    702.00      0.91946    
    704.00      0.92002    
    706.00      0.92059    
    708.00      0.92115    
    710.00      0.92170    
    712.00      0.92225    
    714.00      0.92280    
    716.00      0.92335    
    718.00      0.92390    
    720.00      0.92445    
    722.00      0.92499    
    724.00      0.92552    
    726.00      0.92605    
    728.00      0.92658    
    730.00      0.92709    
    732.00      0.92761    
    734.00      0.92812    
    736.00      0.92862    
    738.00      0.92912    
    740.00      0.92962    
    742.00      0.93011    
    744.00      0.93059    
    746.00      0.93108    
    748.00      0.93155    
    750.00      0.93202    
