 al Density=2.6989 Thickness=5.00000E-02 microns
 Photon Energy (eV), Transmission
    100.00      0.23368    
    107.80      0.22093    
    115.60      0.21144    
    123.40      0.20271    
    131.20      0.21681    
    139.00      0.23447    
    146.80      0.25156    
    154.60      0.27047    
    162.40      0.29101    
    170.20      0.31084    
    178.00      0.33082    
    185.80      0.36369    
    193.60      0.39756    
    201.40      0.42989    
    209.20      0.46097    
    217.00      0.49036    
    224.80      0.51754    
    232.60      0.53984    
    240.40      0.56088    
    248.20      0.58071    
    256.00      0.59940    
    263.80      0.61702    
    271.60      0.63622    
    279.40      0.65635    
    287.20      0.67514    
    295.00      0.69268    
    302.80      0.70906    
    310.60      0.72436    
    318.40      0.73865    
    326.20      0.75201    
    334.00      0.76450    
    341.80      0.77619    
    349.60      0.78714    
    357.40      0.79740    
    365.20      0.80632    
    373.00      0.81449    
    380.80      0.82220    
    388.60      0.82947    
    396.40      0.83634    
    404.20      0.84283    
    412.00      0.84897    
    419.80      0.85478    
    427.60      0.86029    
    435.40      0.86557    
    443.20      0.87086    
    451.00      0.87597    
    458.80      0.88080    
    466.60      0.88538    
    474.40      0.88972    
    482.20      0.89385    
    490.00      0.89777    
    497.80      0.90151    
    505.60      0.90511    
    513.40      0.90857    
    521.20      0.91187    
    529.00      0.91500    
    536.80      0.91797    
    544.60      0.92080    
    552.40      0.92350    
    560.20      0.92612    
    568.00      0.92865    
    575.80      0.93108    
    583.60      0.93341    
    591.40      0.93565    
    599.20      0.93778    
    607.00      0.93982    
    614.80      0.94177    
    622.60      0.94363    
    630.40      0.94543    
    638.20      0.94718    
    646.00      0.94889    
    653.80      0.95056    
    661.60      0.95215    
    669.40      0.95368    
    677.20      0.95506    
    685.00      0.95634    
    692.80      0.95754    
    700.60      0.95868    
    708.40      0.95982    
    716.20      0.96094    
    724.00      0.96204    
    731.80      0.96310    
    739.60      0.96412    
    747.40      0.96510    
    755.20      0.96604    
    763.00      0.96695    
    770.80      0.96783    
    778.60      0.96868    
    786.40      0.96950    
    794.20      0.97030    
    802.00      0.97107    
    809.80      0.97181    
    817.60      0.97253    
    825.40      0.97322    
    833.20      0.97389    
    841.00      0.97454    
    848.80      0.97517    
    856.60      0.97577    
    864.40      0.97636    
    872.20      0.97692    
    880.00      0.97747    
    887.80      0.97801    
    895.60      0.97852    
    903.40      0.97902    
    911.20      0.97950    
    919.00      0.97997    
    926.80      0.98042    
    934.60      0.98086    
    942.40      0.98129    
    950.20      0.98171    
    958.00      0.98211    
    965.80      0.98250    
    973.60      0.98288    
    981.40      0.98325    
    989.20      0.98360    
    997.00      0.98395    
    1004.8      0.98428    
    1012.6      0.98461    
    1020.4      0.98492    
    1028.2      0.98522    
    1036.0      0.98552    
    1043.8      0.98580    
    1051.6      0.98609    
    1059.4      0.98637    
    1067.2      0.98664    
    1075.0      0.98690    
    1082.8      0.98716    
    1090.6      0.98741    
    1098.4      0.98765    
    1106.2      0.98789    
    1114.0      0.98812    
    1121.8      0.98835    
    1129.6      0.98857    
    1137.4      0.98878    
    1145.2      0.98899    
    1153.0      0.98919    
    1160.8      0.98939    
    1168.6      0.98958    
    1176.4      0.98977    
    1184.2      0.98996    
    1192.0      0.99014    
    1199.8      0.99031    
    1207.6      0.99048    
    1215.4      0.99065    
    1223.2      0.99081    
    1231.0      0.99097    
    1238.8      0.99113    
    1246.6      0.99128    
    1254.4      0.99142    
    1262.2      0.99157    
    1270.0      0.99171    
    1277.8      0.99184    
    1285.6      0.99197    
    1293.4      0.99210    
    1301.2      0.99223    
    1309.0      0.99235    
    1316.8      0.99248    
    1324.6      0.99259    
    1332.4      0.99271    
    1340.2      0.99282    
    1348.0      0.99294    
    1355.8      0.99304    
    1363.6      0.99315    
    1371.4      0.99325    
    1379.2      0.99336    
    1387.0      0.99346    
    1394.8      0.99356    
    1402.6      0.99365    
    1410.4      0.99375    
    1418.2      0.99384    
    1426.0      0.99393    
    1433.8      0.99402    
    1441.6      0.99410    
    1449.4      0.99419    
    1457.2      0.99427    
    1465.0      0.99435    
    1472.8      0.99444    
    1480.6      0.99452    
    1488.4      0.99459    
    1496.2      0.99467    
    1504.0      0.99475    
    1511.8      0.99483    
    1519.6      0.99491    
    1527.4      0.99498    
    1535.2      0.99506    
    1543.0      0.99513    
    1550.8      0.99520    
    1558.6      0.99527    
    1566.4      0.94587    
    1574.2      0.94649    
    1582.0      0.94709    
    1589.8      0.94769    
    1597.6      0.94827    
    1605.4      0.94885    
    1613.2      0.94942    
    1621.0      0.94997    
    1628.8      0.95052    
    1636.6      0.95107    
    1644.4      0.95160    
    1652.2      0.95212    
    1660.0      0.95264    
    1667.8      0.95315    
    1675.6      0.95365    
    1683.4      0.95415    
    1691.2      0.95463    
    1699.0      0.95511    
    1706.8      0.95558    
    1714.6      0.95605    
    1722.4      0.95651    
    1730.2      0.95697    
    1738.0      0.95743    
    1745.8      0.95788    
    1753.6      0.95833    
    1761.4      0.95877    
    1769.2      0.95921    
    1777.0      0.95964    
    1784.8      0.96007    
    1792.6      0.96049    
    1800.4      0.96090    
    1808.2      0.96131    
    1816.0      0.96172    
    1823.8      0.96211    
    1831.6      0.96251    
    1839.4      0.96289    
    1847.2      0.96327    
    1855.0      0.96365    
    1862.8      0.96402    
    1870.6      0.96438    
    1878.4      0.96474    
    1886.2      0.96510    
    1894.0      0.96545    
    1901.8      0.96579    
    1909.6      0.96613    
    1917.4      0.96647    
    1925.2      0.96680    
    1933.0      0.96713    
    1940.8      0.96745    
    1948.6      0.96776    
    1956.4      0.96808    
    1964.2      0.96839    
    1972.0      0.96869    
    1979.8      0.96899    
    1987.6      0.96929    
    1995.4      0.96958    
    2003.2      0.96986    
    2011.0      0.97015    
    2018.8      0.97042    
    2026.6      0.97070    
    2034.4      0.97098    
    2042.2      0.97125    
    2050.0      0.97153    
    2057.8      0.97180    
    2065.6      0.97206    
    2073.4      0.97233    
    2081.2      0.97259    
    2089.0      0.97285    
    2096.8      0.97310    
    2104.6      0.97335    
    2112.4      0.97360    
    2120.2      0.97385    
    2128.0      0.97409    
    2135.8      0.97433    
    2143.6      0.97456    
    2151.4      0.97480    
    2159.2      0.97503    
    2167.0      0.97526    
    2174.8      0.97548    
    2182.6      0.97571    
    2190.4      0.97593    
    2198.2      0.97615    
    2206.0      0.97636    
    2213.8      0.97657    
    2221.6      0.97678    
    2229.4      0.97699    
    2237.2      0.97720    
    2245.0      0.97740    
    2252.8      0.97760    
    2260.6      0.97780    
    2268.4      0.97800    
    2276.2      0.97819    
    2284.0      0.97838    
    2291.8      0.97857    
    2299.6      0.97876    
    2307.4      0.97895    
    2315.2      0.97913    
    2323.0      0.97931    
    2330.8      0.97949    
    2338.6      0.97967    
    2346.4      0.97984    
    2354.2      0.98001    
    2362.0      0.98019    
    2369.8      0.98036    
    2377.6      0.98052    
    2385.4      0.98069    
    2393.2      0.98085    
    2401.0      0.98101    
    2408.8      0.98117    
    2416.6      0.98133    
    2424.4      0.98149    
    2432.2      0.98165    
    2440.0      0.98180    
    2447.8      0.98195    
    2455.6      0.98210    
    2463.4      0.98225    
    2471.2      0.98240    
    2479.0      0.98254    
    2486.8      0.98268    
    2494.6      0.98283    
    2502.4      0.98297    
    2510.2      0.98311    
    2518.0      0.98324    
    2525.8      0.98338    
    2533.6      0.98352    
    2541.4      0.98365    
    2549.2      0.98378    
    2557.0      0.98391    
    2564.8      0.98404    
    2572.6      0.98417    
    2580.4      0.98430    
    2588.2      0.98442    
    2596.0      0.98454    
    2603.8      0.98467    
    2611.6      0.98479    
    2619.4      0.98491    
    2627.2      0.98503    
    2635.0      0.98514    
    2642.8      0.98526    
    2650.6      0.98538    
    2658.4      0.98549    
    2666.2      0.98560    
    2674.0      0.98572    
    2681.8      0.98583    
    2689.6      0.98594    
    2697.4      0.98604    
    2705.2      0.98615    
    2713.0      0.98626    
    2720.8      0.98636    
    2728.6      0.98647    
    2736.4      0.98657    
    2744.2      0.98667    
    2752.0      0.98677    
    2759.8      0.98687    
    2767.6      0.98697    
    2775.4      0.98707    
    2783.2      0.98717    
    2791.0      0.98726    
    2798.8      0.98736    
    2806.6      0.98745    
    2814.4      0.98755    
    2822.2      0.98764    
    2830.0      0.98773    
    2837.8      0.98782    
    2845.6      0.98791    
    2853.4      0.98800    
    2861.2      0.98809    
    2869.0      0.98817    
    2876.8      0.98826    
    2884.6      0.98835    
    2892.4      0.98843    
    2900.2      0.98852    
    2908.0      0.98860    
    2915.8      0.98868    
    2923.6      0.98876    
    2931.4      0.98884    
    2939.2      0.98892    
    2947.0      0.98900    
    2954.8      0.98908    
    2962.6      0.98916    
    2970.4      0.98924    
    2978.2      0.98931    
    2986.0      0.98939    
    2993.8      0.98946    
    3001.6      0.98954    
    3009.4      0.98961    
    3017.2      0.98968    
    3025.0      0.98976    
    3032.8      0.98983    
    3040.6      0.98990    
    3048.4      0.98997    
    3056.2      0.99004    
    3064.0      0.99011    
    3071.8      0.99018    
    3079.6      0.99024    
    3087.4      0.99031    
    3095.2      0.99038    
    3103.0      0.99044    
    3110.8      0.99051    
    3118.6      0.99057    
    3126.4      0.99064    
    3134.2      0.99070    
    3142.0      0.99076    
    3149.8      0.99083    
    3157.6      0.99089    
    3165.4      0.99095    
    3173.2      0.99101    
    3181.0      0.99107    
    3188.8      0.99113    
    3196.6      0.99119    
    3204.4      0.99125    
    3212.2      0.99131    
    3220.0      0.99136    
    3227.8      0.99142    
    3235.6      0.99148    
    3243.4      0.99153    
    3251.2      0.99159    
    3259.0      0.99164    
    3266.8      0.99170    
    3274.6      0.99175    
    3282.4      0.99181    
    3290.2      0.99186    
    3298.0      0.99191    
    3305.8      0.99197    
    3313.6      0.99202    
    3321.4      0.99207    
    3329.2      0.99212    
    3337.0      0.99217    
    3344.8      0.99222    
    3352.6      0.99227    
    3360.4      0.99232    
    3368.2      0.99237    
    3376.0      0.99242    
    3383.8      0.99247    
    3391.6      0.99251    
    3399.4      0.99256    
    3407.2      0.99261    
    3415.0      0.99265    
    3422.8      0.99270    
    3430.6      0.99275    
    3438.4      0.99279    
    3446.2      0.99284    
    3454.0      0.99288    
    3461.8      0.99293    
    3469.6      0.99297    
    3477.4      0.99301    
    3485.2      0.99306    
    3493.0      0.99310    
    3500.8      0.99314    
    3508.6      0.99318    
    3516.4      0.99323    
    3524.2      0.99327    
    3532.0      0.99331    
    3539.8      0.99335    
    3547.6      0.99339    
    3555.4      0.99343    
    3563.2      0.99347    
    3571.0      0.99351    
    3578.8      0.99355    
    3586.6      0.99359    
    3594.4      0.99363    
    3602.2      0.99366    
    3610.0      0.99370    
    3617.8      0.99374    
    3625.6      0.99378    
    3633.4      0.99381    
    3641.2      0.99385    
    3649.0      0.99389    
    3656.8      0.99392    
    3664.6      0.99396    
    3672.4      0.99400    
    3680.2      0.99403    
    3688.0      0.99407    
    3695.8      0.99410    
    3703.6      0.99414    
    3711.4      0.99417    
    3719.2      0.99420    
    3727.0      0.99424    
    3734.8      0.99427    
    3742.6      0.99430    
    3750.4      0.99434    
    3758.2      0.99437    
    3766.0      0.99440    
    3773.8      0.99444    
    3781.6      0.99447    
    3789.4      0.99450    
    3797.2      0.99453    
    3805.0      0.99456    
    3812.8      0.99459    
    3820.6      0.99462    
    3828.4      0.99465    
    3836.2      0.99468    
    3844.0      0.99471    
    3851.8      0.99474    
    3859.6      0.99477    
    3867.4      0.99480    
    3875.2      0.99483    
    3883.0      0.99486    
    3890.8      0.99489    
    3898.6      0.99492    
    3906.4      0.99495    
    3914.2      0.99498    
    3922.0      0.99500    
    3929.8      0.99503    
    3937.6      0.99506    
    3945.4      0.99509    
    3953.2      0.99511    
    3961.0      0.99514    
    3968.8      0.99517    
    3976.6      0.99519    
    3984.4      0.99522    
    3992.2      0.99525    
    4000.0      0.99527    
