al Density=2.6989 Thickness=8.00000E-02 microns
 Photon Energy (eV), Transmission
    100.00      0.97675E-01
    107.80      0.89293E-01
    115.60      0.83236E-01
    123.40      0.77802E-01
    131.20      0.86639E-01
    139.00      0.98208E-01
    146.80      0.10991    
    154.60      0.12342    
    162.40      0.13876    
    170.20      0.15419    
    178.00      0.17035    
    185.80      0.19823    
    193.60      0.22858    
    201.40      0.25904    
    209.20      0.28966    
    217.00      0.31975    
    224.80      0.34858    
    232.60      0.37293    
    240.40      0.39645    
    248.20      0.41912    
    256.00      0.44091    
    263.80      0.46182    
    271.60      0.48503    
    279.40      0.50982    
    287.20      0.53337    
    295.00      0.55572    
    302.80      0.57689    
    310.60      0.59693    
    318.40      0.61589    
    326.20      0.63381    
    334.00      0.65074    
    341.80      0.66673    
    349.60      0.68184    
    357.40      0.69611    
    365.20      0.70862    
    373.00      0.72014    
    380.80      0.73107    
    388.60      0.74145    
    396.40      0.75129    
    404.20      0.76065    
    412.00      0.76953    
    419.80      0.77798    
    427.60      0.78601    
    435.40      0.79374    
    443.20      0.80153    
    451.00      0.80906    
    458.80      0.81621    
    466.60      0.82301    
    474.40      0.82948    
    482.20      0.83564    
    490.00      0.84151    
    497.80      0.84714    
    505.60      0.85256    
    513.40      0.85778    
    521.20      0.86277    
    529.00      0.86751    
    536.80      0.87203    
    544.60      0.87633    
    552.40      0.88044    
    560.20      0.88444    
    568.00      0.88830    
    575.80      0.89203    
    583.60      0.89561    
    591.40      0.89904    
    599.20      0.90232    
    607.00      0.90546    
    614.80      0.90847    
    622.60      0.91135    
    630.40      0.91413    
    638.20      0.91683    
    646.00      0.91949    
    653.80      0.92207    
    661.60      0.92455    
    669.40      0.92693    
    677.20      0.92907    
    685.00      0.93106    
    692.80      0.93293    
    700.60      0.93472    
    708.40      0.93650    
    716.20      0.93824    
    724.00      0.93996    
    731.80      0.94161    
    739.60      0.94321    
    747.40      0.94474    
    755.20      0.94622    
    763.00      0.94765    
    770.80      0.94902    
    778.60      0.95036    
    786.40      0.95165    
    794.20      0.95291    
    802.00      0.95412    
    809.80      0.95528    
    817.60      0.95641    
    825.40      0.95750    
    833.20      0.95856    
    841.00      0.95958    
    848.80      0.96056    
    856.60      0.96152    
    864.40      0.96244    
    872.20      0.96334    
    880.00      0.96420    
    887.80      0.96504    
    895.60      0.96585    
    903.40      0.96664    
    911.20      0.96740    
    919.00      0.96814    
    926.80      0.96886    
    934.60      0.96956    
    942.40      0.97024    
    950.20      0.97089    
    958.00      0.97153    
    965.80      0.97215    
    973.60      0.97275    
    981.40      0.97333    
    989.20      0.97389    
    997.00      0.97444    
    1004.8      0.97497    
    1012.6      0.97549    
    1020.4      0.97598    
    1028.2      0.97646    
    1036.0      0.97693    
    1043.8      0.97738    
    1051.6      0.97783    
    1059.4      0.97827    
    1067.2      0.97871    
    1075.0      0.97913    
    1082.8      0.97953    
    1090.6      0.97993    
    1098.4      0.98032    
    1106.2      0.98070    
    1114.0      0.98106    
    1121.8      0.98142    
    1129.6      0.98177    
    1137.4      0.98211    
    1145.2      0.98244    
    1153.0      0.98276    
    1160.8      0.98308    
    1168.6      0.98339    
    1176.4      0.98369    
    1184.2      0.98398    
    1192.0      0.98427    
    1199.8      0.98454    
    1207.6      0.98482    
    1215.4      0.98508    
    1223.2      0.98534    
    1231.0      0.98559    
    1238.8      0.98584    
    1246.6      0.98608    
    1254.4      0.98631    
    1262.2      0.98654    
    1270.0      0.98676    
    1277.8      0.98698    
    1285.6      0.98719    
    1293.4      0.98740    
    1301.2      0.98760    
    1309.0      0.98780    
    1316.8      0.98799    
    1324.6      0.98818    
    1332.4      0.98836    
    1340.2      0.98854    
    1348.0      0.98872    
    1355.8      0.98889    
    1363.6      0.98906    
    1371.4      0.98923    
    1379.2      0.98939    
    1387.0      0.98955    
    1394.8      0.98971    
    1402.6      0.98986    
    1410.4      0.99001    
    1418.2      0.99016    
    1426.0      0.99030    
    1433.8      0.99044    
    1441.6      0.99058    
    1449.4      0.99072    
    1457.2      0.99085    
    1465.0      0.99098    
    1472.8      0.99111    
    1480.6      0.99124    
    1488.4      0.99137    
    1496.2      0.99149    
    1504.0      0.99162    
    1511.8      0.99174    
    1519.6      0.99187    
    1527.4      0.99199    
    1535.2      0.99211    
    1543.0      0.99222    
    1550.8      0.99233    
    1558.6      0.99245    
    1566.4      0.91481    
    1574.2      0.91576    
    1582.0      0.91670    
    1589.8      0.91762    
    1597.6      0.91853    
    1605.4      0.91942    
    1613.2      0.92030    
    1621.0      0.92117    
    1628.8      0.92202    
    1636.6      0.92286    
    1644.4      0.92369    
    1652.2      0.92450    
    1660.0      0.92531    
    1667.8      0.92610    
    1675.6      0.92688    
    1683.4      0.92765    
    1691.2      0.92841    
    1699.0      0.92915    
    1706.8      0.92989    
    1714.6      0.93061    
    1722.4      0.93133    
    1730.2      0.93204    
    1738.0      0.93276    
    1745.8      0.93347    
    1753.6      0.93416    
    1761.4      0.93485    
    1769.2      0.93554    
    1777.0      0.93621    
    1784.8      0.93687    
    1792.6      0.93753    
    1800.4      0.93818    
    1808.2      0.93882    
    1816.0      0.93945    
    1823.8      0.94007    
    1831.6      0.94069    
    1839.4      0.94129    
    1847.2      0.94189    
    1855.0      0.94247    
    1862.8      0.94305    
    1870.6      0.94362    
    1878.4      0.94419    
    1886.2      0.94474    
    1894.0      0.94529    
    1901.8      0.94583    
    1909.6      0.94637    
    1917.4      0.94689    
    1925.2      0.94741    
    1933.0      0.94792    
    1940.8      0.94843    
    1948.6      0.94892    
    1956.4      0.94942    
    1964.2      0.94990    
    1972.0      0.95038    
    1979.8      0.95085    
    1987.6      0.95132    
    1995.4      0.95177    
    2003.2      0.95222    
    2011.0      0.95266    
    2018.8      0.95310    
    2026.6      0.95353    
    2034.4      0.95397    
    2042.2      0.95441    
    2050.0      0.95483    
    2057.8      0.95526    
    2065.6      0.95568    
    2073.4      0.95609    
    2081.2      0.95650    
    2089.0      0.95691    
    2096.8      0.95731    
    2104.6      0.95771    
    2112.4      0.95810    
    2120.2      0.95848    
    2128.0      0.95887    
    2135.8      0.95924    
    2143.6      0.95962    
    2151.4      0.95998    
    2159.2      0.96035    
    2167.0      0.96071    
    2174.8      0.96106    
    2182.6      0.96142    
    2190.4      0.96176    
    2198.2      0.96211    
    2206.0      0.96245    
    2213.8      0.96278    
    2221.6      0.96311    
    2229.4      0.96344    
    2237.2      0.96377    
    2245.0      0.96409    
    2252.8      0.96441    
    2260.6      0.96472    
    2268.4      0.96503    
    2276.2      0.96533    
    2284.0      0.96564    
    2291.8      0.96594    
    2299.6      0.96623    
    2307.4      0.96653    
    2315.2      0.96682    
    2323.0      0.96710    
    2330.8      0.96738    
    2338.6      0.96766    
    2346.4      0.96794    
    2354.2      0.96822    
    2362.0      0.96849    
    2369.8      0.96875    
    2377.6      0.96902    
    2385.4      0.96928    
    2393.2      0.96954    
    2401.0      0.96980    
    2408.8      0.97005    
    2416.6      0.97030    
    2424.4      0.97055    
    2432.2      0.97079    
    2440.0      0.97104    
    2447.8      0.97128    
    2455.6      0.97151    
    2463.4      0.97175    
    2471.2      0.97198    
    2479.0      0.97221    
    2486.8      0.97244    
    2494.6      0.97267    
    2502.4      0.97289    
    2510.2      0.97311    
    2518.0      0.97333    
    2525.8      0.97354    
    2533.6      0.97376    
    2541.4      0.97397    
    2549.2      0.97418    
    2557.0      0.97438    
    2564.8      0.97459    
    2572.6      0.97479    
    2580.4      0.97499    
    2588.2      0.97519    
    2596.0      0.97539    
    2603.8      0.97558    
    2611.6      0.97577    
    2619.4      0.97596    
    2627.2      0.97615    
    2635.0      0.97634    
    2642.8      0.97652    
    2650.6      0.97671    
    2658.4      0.97689    
    2666.2      0.97707    
    2674.0      0.97724    
    2681.8      0.97742    
    2689.6      0.97759    
    2697.4      0.97776    
    2705.2      0.97793    
    2713.0      0.97810    
    2720.8      0.97827    
    2728.6      0.97843    
    2736.4      0.97860    
    2744.2      0.97876    
    2752.0      0.97892    
    2759.8      0.97908    
    2767.6      0.97924    
    2775.4      0.97939    
    2783.2      0.97955    
    2791.0      0.97970    
    2798.8      0.97985    
    2806.6      0.98000    
    2814.4      0.98015    
    2822.2      0.98030    
    2830.0      0.98044    
    2837.8      0.98058    
    2845.6      0.98073    
    2853.4      0.98087    
    2861.2      0.98101    
    2869.0      0.98115    
    2876.8      0.98128    
    2884.6      0.98142    
    2892.4      0.98155    
    2900.2      0.98169    
    2908.0      0.98182    
    2915.8      0.98195    
    2923.6      0.98208    
    2931.4      0.98221    
    2939.2      0.98234    
    2947.0      0.98246    
    2954.8      0.98259    
    2962.6      0.98271    
    2970.4      0.98283    
    2978.2      0.98295    
    2986.0      0.98308    
    2993.8      0.98319    
    3001.6      0.98331    
    3009.4      0.98343    
    3017.2      0.98354    
    3025.0      0.98366    
    3032.8      0.98377    
    3040.6      0.98389    
    3048.4      0.98400    
    3056.2      0.98411    
    3064.0      0.98422    
    3071.8      0.98433    
    3079.6      0.98443    
    3087.4      0.98454    
    3095.2      0.98465    
    3103.0      0.98475    
    3110.8      0.98486    
    3118.6      0.98496    
    3126.4      0.98506    
    3134.2      0.98516    
    3142.0      0.98526    
    3149.8      0.98536    
    3157.6      0.98546    
    3165.4      0.98556    
    3173.2      0.98565    
    3181.0      0.98575    
    3188.8      0.98585    
    3196.6      0.98594    
    3204.4      0.98603    
    3212.2      0.98613    
    3220.0      0.98622    
    3227.8      0.98631    
    3235.6      0.98640    
    3243.4      0.98649    
    3251.2      0.98658    
    3259.0      0.98666    
    3266.8      0.98675    
    3274.6      0.98684    
    3282.4      0.98692    
    3290.2      0.98701    
    3298.0      0.98709    
    3305.8      0.98718    
    3313.6      0.98726    
    3321.4      0.98734    
    3329.2      0.98742    
    3337.0      0.98750    
    3344.8      0.98758    
    3352.6      0.98766    
    3360.4      0.98774    
    3368.2      0.98782    
    3376.0      0.98790    
    3383.8      0.98797    
    3391.6      0.98805    
    3399.4      0.98812    
    3407.2      0.98820    
    3415.0      0.98827    
    3422.8      0.98835    
    3430.6      0.98842    
    3438.4      0.98849    
    3446.2      0.98856    
    3454.0      0.98864    
    3461.8      0.98871    
    3469.6      0.98878    
    3477.4      0.98884    
    3485.2      0.98891    
    3493.0      0.98898    
    3500.8      0.98905    
    3508.6      0.98912    
    3516.4      0.98918    
    3524.2      0.98925    
    3532.0      0.98932    
    3539.8      0.98938    
    3547.6      0.98945    
    3555.4      0.98951    
    3563.2      0.98957    
    3571.0      0.98964    
    3578.8      0.98970    
    3586.6      0.98976    
    3594.4      0.98982    
    3602.2      0.98988    
    3610.0      0.98994    
    3617.8      0.99000    
    3625.6      0.99006    
    3633.4      0.99012    
    3641.2      0.99018    
    3649.0      0.99024    
    3656.8      0.99030    
    3664.6      0.99035    
    3672.4      0.99041    
    3680.2      0.99047    
    3688.0      0.99052    
    3695.8      0.99058    
    3703.6      0.99063    
    3711.4      0.99069    
    3719.2      0.99074    
    3727.0      0.99080    
    3734.8      0.99085    
    3742.6      0.99090    
    3750.4      0.99096    
    3758.2      0.99101    
    3766.0      0.99106    
    3773.8      0.99111    
    3781.6      0.99116    
    3789.4      0.99121    
    3797.2      0.99126    
    3805.0      0.99131    
    3812.8      0.99136    
    3820.6      0.99141    
    3828.4      0.99146    
    3836.2      0.99151    
    3844.0      0.99156    
    3851.8      0.99160    
    3859.6      0.99165    
    3867.4      0.99170    
    3875.2      0.99175    
    3883.0      0.99179    
    3890.8      0.99184    
    3898.6      0.99188    
    3906.4      0.99193    
    3914.2      0.99197    
    3922.0      0.99202    
    3929.8      0.99206    
    3937.6      0.99211    
    3945.4      0.99215    
    3953.2      0.99219    
    3961.0      0.99224    
    3968.8      0.99228    
    3976.6      0.99232    
    3984.4      0.99236    
    3992.2      0.99241    
    4000.0      0.99245    
