Ni Rho=8.902, Sig=0.5nm, P=1., 1.deg
 Photon Energy (eV), Reflectivity
   100.000  0.926924
   102.000  0.926660
   104.000  0.926393
   106.000  0.926135
   108.000  0.925907
   110.000  0.925684
   112.000  0.925424
   114.000  0.925133
   116.000  0.924829
   118.000  0.924518
   120.000  0.924211
   122.000  0.923940
   124.000  0.923618
   126.000  0.923251
   128.000  0.922847
   130.000  0.922399
   132.000  0.921872
   134.000  0.921152
   136.000  0.920264
   138.000  0.919453
   140.000  0.918764
   142.000  0.918151
   144.000  0.917596
   146.000  0.917093
   148.000  0.916641
   150.000  0.916247
   152.000  0.915909
   154.000  0.915633
   156.000  0.915487
   158.000  0.915569
   160.000  0.915884
   162.000  0.915988
   164.000  0.915999
   166.000  0.915977
   168.000  0.915926
   170.000  0.915856
   172.000  0.915773
   174.000  0.915680
   176.000  0.915576
   178.000  0.915468
   180.000  0.915356
   182.000  0.915241
   184.000  0.915126
   186.000  0.915011
   188.000  0.914897
   190.000  0.914789
   192.000  0.914684
   194.000  0.914586
   196.000  0.914499
   198.000  0.914423
   200.000  0.914391
   202.000  0.914396
   204.000  0.914432
   206.000  0.914627
   208.000  0.914822
   210.000  0.914972
   212.000  0.915090
   214.000  0.915185
   216.000  0.915252
   218.000  0.915312
   220.000  0.915353
   222.000  0.915388
   224.000  0.915411
   226.000  0.915427
   228.000  0.915438
   230.000  0.915440
   232.000  0.915441
   234.000  0.915431
   236.000  0.915423
   238.000  0.915406
   240.000  0.915389
   242.000  0.915367
   244.000  0.915344
   246.000  0.915317
   248.000  0.915290
   250.000  0.915259
   252.000  0.915229
   254.000  0.915196
   256.000  0.915164
   258.000  0.915130
   260.000  0.915097
   262.000  0.915064
   264.000  0.915031
   266.000  0.914999
   268.000  0.914968
   270.000  0.914940
   272.000  0.914913
   274.000  0.914889
   276.000  0.914866
   278.000  0.914865
   280.000  0.914884
   282.000  0.914917
   284.000  0.914985
   286.000  0.915053
   288.000  0.915234
   290.000  0.915415
   292.000  0.915560
   294.000  0.915690
   296.000  0.915811
   298.000  0.915916
   300.000  0.916021
   302.000  0.916109
   304.000  0.916197
   306.000  0.916278
   308.000  0.916352
   310.000  0.916427
   312.000  0.916490
   314.000  0.916554
   316.000  0.916613
   318.000  0.916667
   320.000  0.916723
   322.000  0.916769
   324.000  0.916816
   326.000  0.916861
   328.000  0.916901
   330.000  0.916942
   332.000  0.916977
   334.000  0.917012
   336.000  0.917046
   338.000  0.917075
   340.000  0.917104
   342.000  0.917132
   344.000  0.917157
   346.000  0.917183
   348.000  0.917205
   350.000  0.917227
   352.000  0.917249
   354.000  0.917268
   356.000  0.917287
   358.000  0.917307
   360.000  0.917325
   362.000  0.917343
   364.000  0.917363
   366.000  0.917388
   368.000  0.917414
   370.000  0.917446
   372.000  0.917510
   374.000  0.917575
   376.000  0.917640
   378.000  0.917706
   380.000  0.917772
   382.000  0.917837
   384.000  0.917889
   386.000  0.917942
   388.000  0.917994
   390.000  0.918038
   392.000  0.918082
   394.000  0.918126
   396.000  0.918163
   398.000  0.918200
   400.000  0.918237
   402.000  0.918270
   404.000  0.918301
   406.000  0.918332
   408.000  0.918360
   410.000  0.918385
   412.000  0.918410
   414.000  0.918435
   416.000  0.918455
   418.000  0.918475
   420.000  0.918495
   422.000  0.918511
   424.000  0.918526
   426.000  0.918541
   428.000  0.918554
   430.000  0.918564
   432.000  0.918575
   434.000  0.918586
   436.000  0.918592
   438.000  0.918598
   440.000  0.918605
   442.000  0.918609
   444.000  0.918611
   446.000  0.918613
   448.000  0.918615
   450.000  0.918613
   452.000  0.918612
   454.000  0.918610
   456.000  0.918607
   458.000  0.918602
   460.000  0.918597
   462.000  0.918591
   464.000  0.918584
   466.000  0.918575
   468.000  0.918567
   470.000  0.918559
   472.000  0.918547
   474.000  0.918536
   476.000  0.918525
   478.000  0.918514
   480.000  0.918501
   482.000  0.918488
   484.000  0.918475
   486.000  0.918463
   488.000  0.918452
   490.000  0.918441
   492.000  0.918430
   494.000  0.918427
   496.000  0.918448
   498.000  0.918468
   500.000  0.918489
   502.000  0.918527
   504.000  0.918614
   506.000  0.918700
   508.000  0.918786
   510.000  0.918867
   512.000  0.918928
   514.000  0.918989
   516.000  0.919050
   518.000  0.919110
   520.000  0.919158
   522.000  0.919206
   524.000  0.919253
   526.000  0.919301
   528.000  0.919338
   530.000  0.919375
   532.000  0.919411
   534.000  0.919447
   536.000  0.919477
   538.000  0.919502
   540.000  0.919528
   542.000  0.919554
   544.000  0.919576
   546.000  0.919591
   548.000  0.919606
   550.000  0.919621
   552.000  0.919636
   554.000  0.919642
   556.000  0.919647
   558.000  0.919651
   560.000  0.919656
   562.000  0.919656
   564.000  0.919650
   566.000  0.919644
   568.000  0.919638
   570.000  0.919631
   572.000  0.919615
   574.000  0.919598
   576.000  0.919580
   578.000  0.919563
   580.000  0.919541
   582.000  0.919512
   584.000  0.919483
   586.000  0.919453
   588.000  0.919424
   590.000  0.919385
   592.000  0.919342
   594.000  0.919299
   596.000  0.919255
   598.000  0.919212
   600.000  0.919151
   602.000  0.919088
   604.000  0.919025
   606.000  0.918961
   608.000  0.918895
   610.000  0.918758
   612.000  0.918621
   614.000  0.918484
   616.000  0.918347
   618.000  0.918207
   620.000  0.918044
   622.000  0.917882
   624.000  0.917719
   626.000  0.917557
   628.000  0.917393
   630.000  0.917223
   632.000  0.917053
   634.000  0.916883
   636.000  0.916712
   638.000  0.916541
   640.000  0.916357
   642.000  0.916174
   644.000  0.915989
   646.000  0.915805
   648.000  0.915620
   650.000  0.915422
   652.000  0.915221
   654.000  0.915020
   656.000  0.914818
   658.000  0.914616
   660.000  0.914402
   662.000  0.914181
   664.000  0.913960
   666.000  0.913739
   668.000  0.913516
   670.000  0.913287
   672.000  0.913043
   674.000  0.912798
   676.000  0.912552
   678.000  0.912306
   680.000  0.912059
   682.000  0.911790
   684.000  0.911518
   686.000  0.911246
   688.000  0.910972
   690.000  0.910697
   692.000  0.910411
   694.000  0.910108
   696.000  0.909804
   698.000  0.909499
   700.000  0.909193
   702.000  0.908886
   704.000  0.908559
   706.000  0.908227
   708.000  0.907894
   710.000  0.907559
   712.000  0.907223
   714.000  0.906902
   716.000  0.906692
   718.000  0.906480
   720.000  0.906267
   722.000  0.906053
   724.000  0.905838
   726.000  0.905674
   728.000  0.905602
   730.000  0.905528
   732.000  0.905452
   734.000  0.905374
   736.000  0.905294
   738.000  0.905133
   740.000  0.904887
   742.000  0.904637
   744.000  0.904384
   746.000  0.904126
   748.000  0.903866
   750.000  0.903290
   752.000  0.902437
   754.000  0.901575
   756.000  0.900703
   758.000  0.899821
   760.000  0.898929
   762.000  0.898027
   764.000  0.897113
   766.000  0.896187
   768.000  0.895249
   770.000  0.894298
   772.000  0.893334
   774.000  0.892278
   776.000  0.891039
   778.000  0.889778
   780.000  0.888496
   782.000  0.887192
   784.000  0.885865
   786.000  0.884489
   788.000  0.882749
   790.000  0.880970
   792.000  0.879150
   794.000  0.877288
   796.000  0.875384
   798.000  0.873436
   800.000  0.870993
   802.000  0.868292
   804.000  0.865505
   806.000  0.862628
   808.000  0.859656
   810.000  0.856585
   812.000  0.853052
   814.000  0.848295
   816.000  0.843296
   818.000  0.838037
   820.000  0.832501
   822.000  0.826668
   824.000  0.820516
   826.000  0.810611
   828.000  0.798156
   830.000  0.784384
   832.000  0.769101
   834.000  0.752092
   836.000  0.733097
   838.000  0.710032
   840.000  0.589712
   842.000  0.395551
   844.000  0.165142
   846.000  6.322220E-02
   848.000  6.365739E-02
   850.000  9.022189E-02
   852.000  0.199735
   854.000  0.355841
   856.000  0.348527
   858.000  0.349556
   860.000  0.363614
   862.000  0.394628
   864.000  0.442599
   866.000  0.482583
   868.000  0.490740
   870.000  0.499048
   872.000  0.507484
   874.000  0.516017
   876.000  0.524625
   878.000  0.533278
   880.000  0.540503
   882.000  0.545219
   884.000  0.549949
   886.000  0.554685
   888.000  0.559427
   890.000  0.564168
   892.000  0.568904
   894.000  0.573230
   896.000  0.576375
   898.000  0.579520
   900.000  0.582664
